Time [s];T_cat [gradC];n_h2 [mol/s];n_ch4 [mol/s];n_h2_res [mol/s];m_DE [kg/h];Pel [W]
0;448;0.0485;0.0114;0.00252;1.22;490
2;448;0.0484;0.0113;0.00252;0;490
4;447;0.0483;0.0113;0.00251;0;490
6;447;0.0482;0.0112;0.00251;0;350
8;447;0.0481;0.0112;0.0025;0;350
10;446;0.048;0.0111;0.0025;0;350
12;446;0.0479;0.0111;0.00249;0;350
14;446;0.0478;0.0110;0.00249;0;350
16;445;0.0477;0.0110;0.00248;0;350
18;445;0.0476;0.0109;0.00248;0;350
20;445;0.0475;0.0109;0.00247;0;350
22;444;0.0474;0.0108;0.00247;0;350
24;445;0.0473;0.0108;0.00246;0;350
26;445;0.0472;0.0108;0.00246;0;350
28;444;0.0471;0.0101;0.00245;0;350
30;444;0.047;0.0101;0.00245;0;350
32;445;0.0469;0.0101;0.00244;0;350
34;444;0.0468;0.0101;0.00244;0;448
36;444;0.0467;0.0100;0.00243;0;490
38;444;0.0466;0.0100;0.00243;0;490
40;444;0.0465;0.0100;0.00242;0;490
42;444;0.0464;0.0100;0.00242;0;490
44;445;0.0463;0.0100;0.00241;0;378
46;444;0.0462;0.0099;0.00241;0;350
48;445;0.0461;0.0099;0.0024;0;350
50;445;0.046;0.0099;0.0024;0;350
52;445;0.0459;0.0099;0.00239;0;350
54;445;0.0458;0.0099;0.00239;0;350
56;445;0.0457;0.0098;0.00238;0;350
58;445;0.0456;0.0098;0.00238;0;350
60;445;0.0455;0.0098;0.00237;0;350
62;446;0.0454;0.0098;0.00237;0;350
64;445;0.0452;0.0094;0.00265;0;350
66;446;0.0451;0.0094;0.00264;0;350
68;447;0.0451;0.0093;0.00262;0;350
70;446;0.0449;0.0093;0.00263;0;350
72;447;0.0449;0.0093;0.00261;0;350
74;447;0.0448;0.0093;0.00262;0;406
76;447;0.0446;0.0093;0.0026;0;490
78;447;0.0445;0.0092;0.00262;0;490
80;448;0.0444;0.0092;0.00259;0;490
82;448;0.0443;0.0092;0.0026;0;490
84;448;0.0442;0.0092;0.00258;0;420
86;449;0.0441;0.0091;0.00258;0;350
88;448;0.044;0.0091;0.00257;0;350
90;449;0.0439;0.0091;0.00256;0;350
92;449;0.0438;0.0091;0.00255;0;350
94;449;0.0437;0.0091;0.00254;0;350
96;450;0.0436;0.0091;0.00254;0;350
98;450;0.0435;0.0091;0.00252;0;350
100;451;0.0434;0.0090;0.00252;0;350
102;451;0.0433;0.0090;0.0025;0;350
104;451;0.0432;0.0090;0.00251;0;350
106;452;0.0431;0.0090;0.00248;0;350
108;452;0.043;0.0090;0.00248;0;350
110;452;0.0429;0.0090;0.00246;0;350
112;453;0.0428;0.0090;0.00244;0;350
114;452;0.0427;0.0089;0.00245;0;350
116;453;0.0426;0.0089;0.00243;0;476
118;454;0.0425;0.0089;0.00243;0;490
120;453;0.0424;0.0089;0.00241;0;490
122;454;0.0423;0.0089;0.00241;0;490
124;454;0.0422;0.0088;0.0024;0;490
126;454;0.0421;0.0088;0.00237;0;378
128;454;0.042;0.0088;0.00239;0;350
130;455;0.0419;0.0088;0.00237;0;350
132;454;0.0418;0.0088;0.00237;0;350
134;455;0.0417;0.0087;0.00237;0;350
136;455;0.0416;0.0088;0.00233;0;350
138;455;0.0415;0.0087;0.00235;0;350
140;455;0.0414;0.0087;0.00233;0;350
142;456;0.0413;0.0087;0.00232;0;350
144;455;0.0412;0.0086;0.00232;0;350
146;456;0.0411;0.0086;0.00232;0;350
148;456;0.041;0.0086;0.00231;0;350
150;456;0.0409;0.0086;0.0023;0;350
152;456;0.0408;0.0086;0.00228;0;350
154;456;0.0407;0.0085;0.00229;0;406
156;456;0.0405;0.0085;0.00228;0;490
158;456;0.0404;0.0085;0.00227;0;490
160;457;0.0403;0.0085;0.00224;0;490
162;456;0.0402;0.0085;0.00226;0;490
164;456;0.0401;0.0085;0.00226;0;420
166;457;0.04;0.0084;0.00224;0;350
168;456;0.0399;0.0084;0.00223;0;350
170;457;0.0398;0.0084;0.00222;0;350
172;457;0.0397;0.0084;0.00223;0;350
174;456;0.0396;0.0084;0.00222;0;350
176;457;0.0395;0.0084;0.00219;0;350
178;457;0.0394;0.0083;0.0022;0;350
180;456;0.0393;0.0083;0.0022;0;350
182;457;0.0392;0.0083;0.00218;0;350
184;457;0.0391;0.0083;0.00216;0;350
186;456;0.039;0.0082;0.00218;0;350
188;457;0.0389;0.0082;0.00216;0;350
190;457;0.0388;0.0082;0.00213;0;350
192;456;0.0387;0.0082;0.00214;0;434
194;457;0.0386;0.0082;0.00214;0;490
196;457;0.0385;0.0082;0.00213;0;490
198;456;0.0384;0.0081;0.00212;0;490
200;457;0.0383;0.0081;0.00211;0;490
202;457;0.0382;0.0081;0.00212;0;392
204;457;0.0381;0.0081;0.00211;0;350
206;458;0.038;0.0080;0.0021;0;350
208;458;0.0379;0.0080;0.00209;0;350
210;458;0.0378;0.0080;0.00206;0;350
212;459;0.0377;0.0080;0.00207;0;350
214;459;0.0376;0.0080;0.00208;0;350
216;459;0.0375;0.0079;0.00207;0;350
218;460;0.0374;0.0079;0.00206;0;350
220;460;0.0373;0.0079;0.00205;0;350
222;460;0.0372;0.0079;0.00203;0;406
224;460;0.0371;0.0079;0.00203;0;490
226;461;0.037;0.0078;0.00204;0;490
228;461;0.0369;0.0078;0.00204;0;490
230;461;0.0368;0.0078;0.00203;0;490
232;461;0.0367;0.0078;0.00203;0;420
234;461;0.0366;0.0077;0.00202;0;350
236;462;0.0365;0.0077;0.00201;0;350
238;462;0.0363;0.0077;0.00199;0;350
240;462;0.0362;0.0077;0.00198;0;350
242;462;0.0361;0.0077;0.00197;0;350
244;463;0.036;0.0077;0.00196;0;350
246;463;0.036;0.0077;0.00195;0;350
248;463;0.0358;0.0076;0.00195;0;350
250;463;0.0357;0.0076;0.00194;0;350
252;464;0.0356;0.0076;0.00194;0;350
254;464;0.0355;0.0076;0.00193;0;350
256;464;0.0354;0.0075;0.00193;0;350
258;464;0.0353;0.0075;0.00192;0;350
260;465;0.0352;0.0075;0.00191;0;378
262;465;0.0351;0.0075;0.00191;0;490
264;465;0.035;0.0075;0.00189;0;490
266;465;0.0349;0.0074;0.00188;0;490
268;465;0.0348;0.0074;0.00187;0;490
270;466;0.0347;0.0074;0.00186;0;448
272;466;0.0346;0.0074;0.00187;0;350
274;466;0.0345;0.0073;0.00187;0;350
276;466;0.0344;0.0073;0.00187;0;350
278;466;0.0343;0.0073;0.00185;0;350
280;466;0.0342;0.0073;0.00185;0;350
282;466;0.0341;0.0073;0.00183;0;350
284;466;0.034;0.0073;0.00182;0;350
286;467;0.0339;0.0072;0.00182;0;350
288;467;0.0338;0.0072;0.0018;0;350
290;467;0.0337;0.0072;0.0018;0;350
292;467;0.0336;0.0072;0.0018;0;350
294;467;0.0335;0.0071;0.0018;0;350
296;467;0.0334;0.0071;0.0018;0;378
298;467;0.0333;0.0071;0.00178;0;490
300;468;0.0332;0.0071;0.00177;0;490
302;468;0.0331;0.0071;0.00176;0;490
304;468;0.033;0.0071;0.00175;0;490
306;468;0.0329;0.0070;0.00175;0;462
308;468;0.0328;0.0070;0.00175;0;350
310;469;0.0327;0.0070;0.00175;0;350
312;469;0.0326;0.0069;0.00174;0;350
314;469;0.0325;0.0069;0.00173;0;350
316;469;0.0324;0.0069;0.00172;0;350
318;469;0.0323;0.0069;0.0017;0;350
320;470;0.0322;0.0069;0.0017;0;350
322;470;0.0321;0.0069;0.00169;0;350
324;470;0.0319;0.0068;0.00169;0;350
326;470;0.0318;0.0068;0.00169;0;350
328;470;0.0317;0.0068;0.00168;0;350
330;470;0.0316;0.0068;0.00167;0;364
332;470;0.0315;0.0068;0.00166;0;490
334;470;0.0314;0.0067;0.00164;0;490
336;470;0.0313;0.0067;0.00163;0;490
338;470;0.0312;0.0067;0.00163;0;490
340;470;0.0311;0.0067;0.00164;0;476
342;470;0.031;0.0066;0.00163;0;350
344;470;0.0309;0.0066;0.00162;0;350
346;470;0.0308;0.0066;0.00161;0;350
348;470;0.0307;0.0066;0.0016;0;350
350;470;0.0306;0.0066;0.0016;0;350
352;470;0.0305;0.0065;0.0016;0;350
354;470;0.0304;0.0065;0.0016;0;350
356;470;0.0303;0.0065;0.00159;0;350
358;470;0.0302;0.0065;0.00158;0;350
360;470;0.0301;0.0064;0.00156;0;350
362;471;0.03;0.0064;0.00157;0;350
364;471;0.0299;0.0064;0.00156;0;420
366;471;0.0298;0.0064;0.00156;0;490
368;471;0.0297;0.0064;0.00154;0;490
370;471;0.0296;0.0063;0.00153;0;490
372;471;0.0295;0.0063;0.00153;0;490
374;471;0.0294;0.0063;0.00153;0;420
376;471;0.0293;0.0063;0.00152;0;350
378;471;0.0292;0.0062;0.00151;0;350
380;471;0.0291;0.0062;0.0015;0;350
382;471;0.029;0.0062;0.00149;0;350
384;471;0.0289;0.0062;0.00149;0;350
386;471;0.0288;0.0062;0.00149;0;350
388;471;0.0287;0.0061;0.00149;0;350
390;471;0.0286;0.0061;0.00148;0;350
392;471;0.0285;0.0061;0.00147;0;350
394;471;0.0284;0.0061;0.00145;0;350
396;471;0.0283;0.0061;0.00145;0;350
398;471;0.0282;0.0060;0.00145;0;350
400;471;0.0281;0.0060;0.00144;0;490
402;471;0.028;0.0060;0.00143;0;490
404;471;0.0279;0.0060;0.00142;0;490
406;471;0.0278;0.0060;0.00141;0;490
408;471;0.0277;0.0059;0.00141;0;490
410;471;0.0276;0.0059;0.0014;0;350
412;470;0.0275;0.0059;0.00139;0;350
414;470;0.0273;0.0059;0.00138;0;350
416;470;0.0272;0.0058;0.00138;0;350
418;470;0.0271;0.0058;0.00138;0;350
420;470;0.027;0.0058;0.00137;0;350
422;470;0.0269;0.0058;0.00135;0;350
424;470;0.0268;0.0058;0.00134;0;350
426;470;0.0267;0.0057;0.00135;0;350
428;470;0.0266;0.0057;0.00134;0;350
430;470;0.0265;0.0057;0.00133;0;350
432;470;0.0264;0.0057;0.00132;0;406
434;469;0.0263;0.0056;0.00131;0;490
436;469;0.0262;0.0056;0.00131;0;490
438;469;0.0261;0.0056;0.00131;0;490
440;469;0.026;0.0056;0.0013;0;490
442;469;0.0259;0.0056;0.00129;0;420
444;469;0.0258;0.0055;0.00129;0;350
446;469;0.0257;0.0055;0.00129;0;350
448;469;0.0256;0.0055;0.00128;0;350
450;468;0.0255;0.0055;0.00127;0;350
452;468;0.0254;0.0054;0.00128;0;350
454;468;0.0253;0.0054;0.00128;0;350
456;468;0.0252;0.0054;0.00126;0;350
458;468;0.0251;0.0054;0.00125;0;350
460;468;0.025;0.0053;0.00126;0;420
462;467;0.0249;0.0053;0.00125;0;490
464;467;0.0248;0.0053;0.00123;0;490
466;467;0.0247;0.0053;0.00124;0;490
468;467;0.0246;0.0053;0.00122;0;490
470;467;0.0245;0.0052;0.00121;0;420
472;466;0.0244;0.0052;0.00121;0;350
474;466;0.0243;0.0052;0.0012;0;350
476;466;0.0242;0.0052;0.00118;0;350
478;466;0.0241;0.0052;0.00118;0;350
480;465;0.024;0.0051;0.00117;0;350
482;465;0.0239;0.0051;0.00116;0;350
484;465;0.0238;0.0051;0.00114;0;350
486;465;0.0237;0.0051;0.00115;0;350
488;465;0.0236;0.0050;0.00114;0;350
490;464;0.0235;0.0050;0.00113;0;350
492;464;0.0234;0.0050;0.00112;0;350
494;464;0.0233;0.0050;0.00113;0;350
496;464;0.0232;0.0049;0.00113;0;420
498;463;0.023;0.0049;0.00112;0;490
500;463;0.023;0.0049;0.0011;0;490
502;463;0.0228;0.0049;0.00111;0;490
504;463;0.0227;0.0048;0.0011;0;490
506;462;0.0226;0.0048;0.0011;0;420
508;462;0.0225;0.0048;0.00108;0;350
510;462;0.0224;0.0048;0.00109;0;350
512;462;0.0223;0.0048;0.00108;0;350
514;461;0.0222;0.0047;0.00106;0;350
516;461;0.0221;0.0047;0.00106;0;350
518;461;0.022;0.0047;0.00106;0;350
520;460;0.0219;0.0047;0.00105;0;350
522;460;0.0218;0.0046;0.00104;0;350
524;460;0.0217;0.0046;0.00105;0;350
526;459;0.0216;0.0046;0.00104;0;448
528;459;0.0215;0.0046;0.00103;0;490
530;459;0.0214;0.0046;0.00103;0;490
532;458;0.0213;0.0045;0.00103;0;490
534;458;0.0212;0.0045;0.00102;0;490
536;458;0.0211;0.0045;0.00101;0;392
538;457;0.021;0.0045;0.00101;0;350
540;457;0.0209;0.0044;0.001;0;350
542;457;0.0208;0.0044;0.000982;0;350
544;456;0.0207;0.0044;0.00098;0;350
546;456;0.0206;0.0044;0.000973;0;350
548;455;0.0205;0.0044;0.000959;0;350
550;455;0.0204;0.0043;0.000952;0;350
552;455;0.0203;0.0043;0.000953;0;350
554;454;0.0202;0.0043;0.00094;0;350
556;454;0.0201;0.0043;0.000927;0;350
558;453;0.02;0.0042;0.000931;0;350
560;453;0.0199;0.0042;0.00092;0;490
562;453;0.0198;0.0042;0.000912;1.49;490
564;452;0.0198;0.0042;0.000922;1.48;490
566;452;0.0198;0.0042;0.000925;1.48;490
568;451;0.0198;0.0042;0.000915;1.48;490
570;451;0.0198;0.0042;0.00092;1.48;350
572;451;0.0198;0.0042;0.000922;1.48;350
574;451;0.0198;0.0042;0.000915;1.48;350
576;451;0.0198;0.0042;0.000907;1.48;350
578;451;0.0198;0.0042;0.000914;1.48;350
580;451;0.0198;0.0042;0.000909;1.48;350
582;451;0.0198;0.0042;0.0009;1.48;350
584;451;0.0198;0.0042;0.000909;1.48;350
586;451;0.0198;0.0042;0.000902;1.48;350
588;451;0.0198;0.0042;0.000895;1.48;350
590;451;0.0198;0.0042;0.000892;1.48;378
592;451;0.0198;0.0042;0.000895;1.48;490
594;450;0.0198;0.0042;0.00089;1.48;490
596;450;0.0198;0.0043;0.000882;1.48;490
598;450;0.0198;0.0042;0.000892;1.48;490
600;449;0.0198;0.0043;0.000887;1.47;448
602;449;0.0198;0.0043;0.000873;1.47;350
604;448;0.0198;0.0043;0.000886;1.47;350
606;448;0.0198;0.0043;0.000882;1.47;350
608;447;0.0198;0.0043;0.000876;1.46;350
610;447;0.0198;0.0043;0.000882;1.46;350
612;446;0.0198;0.0043;0.000883;1.46;350
614;446;0.0198;0.0043;0.000874;1.46;350
616;445;0.0198;0.0043;0.000876;1.46;350
618;445;0.0198;0.0043;0.000877;1.45;350
620;445;0.0198;0.0043;0.000868;1.45;350
622;444;0.0198;0.0043;0.00087;1.45;364
624;444;0.0198;0.0043;0.00087;1.45;490
626;443;0.0198;0.0043;0.00086;1.45;490
628;443;0.0198;0.0043;0.000864;1.44;490
630;443;0.0198;0.0043;0.000862;1.44;490
632;442;0.0198;0.0043;0.000847;1.44;476
634;442;0.0198;0.0043;0.000858;1.44;350
636;441;0.0198;0.0043;0.000849;1.43;350
638;441;0.0198;0.0043;0.000843;1.43;350
640;440;0.0198;0.0043;0.000849;1.43;350
642;440;0.0198;0.0043;0.000839;1.43;350
644;439;0.0198;0.0043;0.000844;1.42;350
646;438;0.0198;0.0043;0.000846;1.42;350
648;438;0.0198;0.0043;0.000837;1.42;350
650;437;0.0198;0.0043;0.000846;1.42;350
652;437;0.0198;0.0043;0.000841;1.41;350
654;436;0.0198;0.0043;0.000836;1.41;476
656;436;0.0198;0.0043;0.000842;1.41;490
658;435;0.0198;0.0043;0.000835;1.41;490
660;435;0.0198;0.0043;0.000833;1.4;490
662;434;0.0198;0.0043;0.000837;1.4;490
664;434;0.0198;0.0043;0.000831;1.4;364
666;433;0.0198;0.0043;0.000836;1.39;350
668;433;0.0198;0.0043;0.00083;1.39;350
670;432;0.0198;0.0043;0.000827;1.39;350
672;431;0.0198;0.0043;0.000828;1.38;350
674;430;0.0198;0.0043;0.00082;1.38;350
676;429;0.0198;0.0043;0.000832;1.37;350
678;428;0.0198;0.0043;0.000825;1.37;350
680;428;0.0198;0.0043;0.000834;1.36;350
682;427;0.0198;0.0043;0.000832;1.36;350
684;425;0.0198;0.0043;0.000827;1.35;462
686;424;0.0198;0.0043;0.000831;1.35;490
688;423;0.0198;0.0043;0.000817;1.34;490
690;422;0.0198;0.0043;0.000831;1.34;490
692;422;0.0198;0.0043;0.000823;1.33;490
694;421;0.0198;0.0043;0.000825;1.33;364
696;420;0.0198;0.0043;0.000822;1.32;350
698;419;0.0198;0.0043;0.000811;1.32;350
700;418;0.0198;0.0043;0.000817;1.31;350
702;418;0.0198;0.0043;0.000808;1.31;350
704;417;0.0198;0.0043;0.000811;1.31;350
706;417;0.0198;0.0043;0.000807;1.31;350
708;416;0.0198;0.0043;0.000797;1.3;350
710;416;0.0198;0.0043;0.000808;1.3;350
712;415;0.0198;0.0043;0.000795;1.3;350
714;415;0.0198;0.0043;0.000801;1.29;350
716;414;0.0198;0.0043;0.000791;1.29;490
718;413;0.0198;0.0043;0.000789;1.28;490
720;413;0.0198;0.0043;0.000795;1.28;490
722;413;0.0198;0.0043;0.00078;1.28;490
724;412;0.0198;0.0043;0.000794;1.27;476
726;412;0.0198;0.0043;0.000786;1.27;350
728;411;0.0198;0.0043;0.000795;1.27;350
730;411;0.0198;0.0043;0.000789;1.26;350
732;410;0.0198;0.0043;0.000787;1.26;350
734;410;0.0198;0.0043;0.00079;1.25;350
736;409;0.0198;0.0043;0.000783;1.25;350
738;409;0.0198;0.0043;0.000793;1.25;350
740;408;0.0198;0.0043;0.000783;1.25;350
742;408;0.0198;0.0043;0.000785;1.25;350
744;407;0.0198;0.0043;0.000779;1.24;350
746;407;0.0198;0.0044;0.000772;1.24;350
748;407;0.0198;0.0043;0.000777;1.23;392
750;406;0.0198;0.0044;0.000769;1.23;490
752;406;0.0198;0.0044;0.000775;1.23;490
754;405;0.0198;0.0044;0.000772;1.22;490
756;405;0.0198;0.0044;0.000759;1.22;490
758;404;0.0198;0.0044;0.000768;1.22;434
760;404;0.0198;0.0044;0.000759;1.21;350
762;404;0.0198;0.0044;0.000762;1.21;350
764;403;0.0198;0.0044;0.000763;1.21;350
766;403;0.0198;0.0044;0.000754;1.21;350
768;403;0.0198;0.0044;0.000759;1.2;350
770;402;0.0198;0.0044;0.000753;1.2;350
772;402;0.0198;0.0044;0.000752;1.2;350
774;402;0.0198;0.0044;0.000755;1.19;350
776;401;0.0198;0.0044;0.000742;1.19;350
778;401;0.0198;0.0044;0.000755;1.19;350
780;401;0.0198;0.0044;0.000749;1.19;490
782;400;0.0198;0.0044;0.000751;1.18;490
784;400;0.0198;0.0044;0.000753;1.18;490
786;399;0.0198;0.0044;0.000742;1.18;490
788;399;0.0198;0.0044;0.000752;1.17;490
790;399;0.0198;0.0044;0.000743;1.17;350
792;398;0.0198;0.0044;0.000744;1.17;350
794;398;0.0198;0.0044;0.000746;1.16;350
796;398;0.0198;0.0044;0.000728;1.16;350
798;398;0.0198;0.0044;0.000737;1.16;350
800;397;0.0198;0.0044;0.000732;1.15;350
802;397;0.0198;0.0044;0.00073;1.15;350
804;397;0.0198;0.0044;0.000738;1.15;350
806;396;0.0198;0.0044;0.000726;1.15;350
808;396;0.0198;0.0044;0.000736;1.15;350
810;396;0.0198;0.0044;0.000728;1.14;434
812;396;0.0198;0.0044;0.000733;1.14;490
814;395;0.0198;0.0044;0.000724;1.14;490
816;395;0.0198;0.0044;0.000723;1.13;490
818;395;0.0198;0.0044;0.000724;1.13;490
820;395;0.0198;0.0044;0.000714;1.13;406
822;394;0.0198;0.0044;0.000718;1.12;350
824;394;0.0198;0.0044;0.000711;1.12;350
826;394;0.0198;0.0044;0.00071;1.12;350
828;393;0.0198;0.0044;0.000702;1.11;350
830;393;0.0198;0.0044;0.000702;1.11;350
832;393;0.0198;0.0044;0.000697;1.11;350
834;393;0.0198;0.0044;0.000696;1.1;350
836;392;0.0198;0.0044;0.000697;1.1;350
838;392;0.0198;0.0044;0.000689;1.1;350
840;392;0.0198;0.0044;0.000698;1.1;350
842;392;0.0198;0.0044;0.000692;1.1;462
844;392;0.0198;0.0044;0.000693;1.09;490
846;391;0.0198;0.0044;0.000693;1.09;490
848;391;0.0198;0.0044;0.000686;1.09;490
850;391;0.0198;0.0044;0.000695;1.08;490
852;391;0.0198;0.0044;0.000689;1.08;378
854;390;0.0198;0.0044;0.000688;1.08;350
856;390;0.0198;0.0044;0.000693;1.08;350
858;390;0.0198;0.0044;0.000683;1.08;350
860;390;0.0198;0.0044;0.000694;1.07;350
862;390;0.0198;0.0044;0.000685;1.07;350
864;390;0.0198;0.0044;0.000686;1.06;350
866;389;0.0198;0.0044;0.000686;1.06;350
868;389;0.0198;0.0044;0.000678;1.06;350
870;389;0.0198;0.0044;0.000684;1.06;350
872;389;0.0198;0.0044;0.000674;1.06;350
874;389;0.0198;0.0044;0.00068;1.05;476
876;389;0.0198;0.0044;0.000672;1.05;490
878;388;0.0198;0.0044;0.00067;1.05;490
880;388;0.0198;0.0044;0.000668;1.05;490
882;388;0.0198;0.0044;0.000661;1.04;490
884;388;0.0198;0.0044;0.000666;1.04;350
886;388;0.0198;0.0045;0.000656;1.04;350
888;388;0.0198;0.0045;0.00066;1.04;350
890;387;0.0198;0.0045;0.000653;1.03;350
892;387;0.0198;0.0045;0.000654;1.03;350
894;387;0.0198;0.0045;0.000654;1.03;350
896;387;0.0198;0.0045;0.000646;1.03;350
898;387;0.0198;0.0045;0.000652;1.03;350
900;387;0.0198;0.0045;0.000643;1.02;350
902;387;0.0198;0.0047;0.000299;2.04;350
904;387;0.0198;0.0047;0.000299;2.03501;350
906;386;0.0199;0.0047;0.000299;2.03003;350
908;386;0.0199;0.0048;0.0003;2.02506;350
910;386;0.02;0.0048;0.000301;2.0201;350
912;386;0.0201;0.0048;0.000302;2.01515;350
914;386;0.0201;0.0048;0.000303;2.01021;350
916;385;0.0202;0.0048;0.000304;2.00528;350
918;385;0.0202;0.0048;0.000305;2.00036;350
920;385;0.0203;0.0049;0.000306;1.99545;350
922;385;0.0204;0.0049;0.000306;1.99055;350
924;385;0.0204;0.0049;0.000307;1.98566;350
926;385;0.0205;0.0049;0.000308;1.98078;350
928;385;0.0206;0.0049;0.000309;1.97591;350
930;385;0.0206;0.0049;0.00031;1.97105;350
932;385.054;0.0207;0.0050;0.000311;1.9662;350
934;385.112;0.0207;0.0050;0.000312;1.96136;350
936;385.174;0.0208;0.0050;0.000313;1.95653;350
938;385.24;0.0209;0.0050;0.000314;1.95171;350
940;385.31;0.0209;0.0050;0.000315;1.9469;350
942;385.384;0.021;0.0050;0.000316;1.9421;350
944;385.462;0.021;0.0051;0.000317;1.93731;350
946;385.544;0.0211;0.0051;0.000318;1.93253;350
948;385.63;0.0212;0.0051;0.000318;1.92776;350
950;385.72;0.0212;0.0051;0.000319;1.923;350
952;385.814;0.0213;0.0051;0.00032;1.91825;350
954;385.912;0.0214;0.0051;0.000321;1.91351;350
956;386.014;0.0214;0.0052;0.000322;1.90878;350
958;386.12;0.0215;0.0052;0.000323;1.90406;350
960;386.23;0.0215;0.0052;0.000324;1.89935;350
962;386.344;0.0216;0.0052;0.000325;1.89465;350
964;386.462;0.0217;0.0052;0.000326;1.88996;350
966;386.584;0.0217;0.0052;0.000327;1.88528;350
968;386.71;0.0218;0.0053;0.000328;1.88061;350
970;386.84;0.0218;0.0053;0.000328;1.87595;350
972;386.974;0.0219;0.0053;0.000329;1.8713;350
974;387.112;0.022;0.0053;0.00033;1.86666;350
976;387.254;0.022;0.0053;0.000331;1.86203;350
978;387.4;0.0221;0.0053;0.000332;1.85741;350
980;387.55;0.0221;0.0054;0.000333;1.8528;350
982;387.704;0.0222;0.0054;0.000334;1.8482;350
984;387.862;0.0223;0.0054;0.000335;1.84361;350
986;388.024;0.0223;0.0054;0.000336;1.83903;350
988;388.19;0.0224;0.0054;0.000337;1.83446;350
990;388.36;0.0225;0.0054;0.000338;1.8299;350
992;388.534;0.0225;0.0055;0.000339;1.82535;350
994;388.712;0.0226;0.0055;0.00034;1.82081;350
996;388.894;0.0226;0.0055;0.00034;1.81628;350
998;389.08;0.0227;0.0055;0.000341;1.81176;350
1000;389.27;0.0228;0.0055;0.000342;1.80725;350
1002;389.464;0.0228;0.0055;0.000343;1.80275;350
1004;389.662;0.0229;0.0056;0.000344;1.79826;350
1006;389.864;0.0229;0.0056;0.000345;1.79378;350
1008;390.07;0.023;0.0056;0.000346;1.78931;350
1010;390.28;0.0231;0.0056;0.000347;1.78485;350
1012;390.494;0.0231;0.0056;0.000348;1.7804;350
1014;390.712;0.0232;0.0056;0.000349;1.77596;350
1016;390.934;0.0233;0.0057;0.00035;1.77153;350
1018;391.16;0.0233;0.0057;0.00035;1.76711;350
1020;391.39;0.0234;0.0057;0.000351;1.7627;350
1022;391.624;0.0234;0.0057;0.000352;1.7583;350
1024;391.862;0.0235;0.0057;0.000353;1.75391;350
1026;392.104;0.0236;0.0057;0.000354;1.74953;350
1028;392.35;0.0236;0.0058;0.000355;1.74516;350
1030;392.6;0.0237;0.0058;0.000356;1.7408;350
1032;392.854;0.0237;0.0058;0.000357;1.73645;350
1034;393.112;0.0238;0.0058;0.000358;1.73211;350
1036;393.374;0.0239;0.0058;0.000359;1.72778;350
